Version =  1.64
NumCams = 1
Cam     Date       Time        Roll     Pitch       Yaw
---  ----------  --------  --------  --------  --------
101  04/21/2013  08:00:00      0.00     25.00      0.00
-------------------------------------------------------
Extinction Fit: Multi-Day = 2
Extinction Coef Scale     = 1.008800
Extinction Coef Rayleigh  = 2.846974
Extinction Coef Oxygen2   = 2.846974
Extinction Coef Ozone     = 0.761201
Extinction Coef Dust      = 17.575153
Extinction Coef Water     = 12.857024
-------------------------------------------------------
Number of wavelengths      = 1001
Responsivity normalization = 302172611547561.830
-------------------------------------------------------
Wave(nm)    WeightSum   DayResp     CumResp     SmoothResp  DayExtn     CumExtn
  350.0000       4.207    2.298936    2.551661    0.000000   -1.000000    0.503740
  350.6000       4.397   -5.254764   -1.028988    0.000000   -1.000000    0.505780
  351.2000       4.409   -6.482242   -1.051913    0.000000   -1.000000    0.507810
  351.8000       4.757   -3.656777    0.979085    0.000000   -1.000000    0.509840
  352.4000       4.922    0.597481    1.723408    0.000000   -1.000000    0.511850
  353.0000       5.741   -2.705244   -0.154721    0.000000   -1.000000    0.513860
  353.6000       5.044   -9.124421    0.131125    0.000000   -1.000000    0.515850
  354.2000       5.218    1.068346    0.643099    0.000000   -1.000000    0.517840
  354.8000       5.046    2.528073   -0.123581    0.000000   -1.000000    0.519810
  355.4000       5.219    6.537539   -0.209279    0.000000   -1.000000    0.521780
  356.0000       5.219    6.839315   -0.123903    0.000000   -1.000000    0.523730
  356.6000       5.430   -0.951507   -0.278945    0.000000   -1.000000    0.525680
  357.2000       6.246  -13.494427   -2.263700    0.000000   -1.000000    0.527620
  357.8000       5.749   -9.860732   -3.382335    0.000000   -1.000000    0.529540
  358.4000       6.421   -0.993794   -2.363940    0.000000   -1.000000    0.531460
  359.0000       6.931    4.005403   -0.526267    0.000000   -1.000000    0.533370
  359.6000       6.602   10.835407   -1.582367    0.000000   -1.000000    0.535260
  360.2000       7.045    5.853707   -1.443349    0.000000   -1.000000    0.537150
  360.8000       6.668   -1.498615   -1.380667    0.000000   -1.000000    0.539030
  361.4000       6.706    0.724831   -0.551249    0.000000   -1.000000    0.540890
  362.0000       7.219    0.383136    0.045129    0.000000   -1.000000    0.542750
  362.6000       7.601   -1.412865   -0.466512    0.000000   -1.000000    0.544600
  363.2000       7.616    0.613714   -0.482106    0.000000   -1.000000    0.546440
  363.8000       7.446   -0.815600    0.560121    0.000000   -1.000000    0.548270
  364.4000       7.614    0.000621    0.604254    0.000000   -1.000000    0.550090
  365.0000       7.399   -1.052695    0.201594    0.000000   -1.000000    0.551900
  365.6000       7.665   -0.816650    0.230797    0.000000   -1.000000    0.553700
  366.2000       7.815   -1.328280    0.331414    0.000000   -1.000000    0.555500
  366.8000       8.634   -1.747134    0.168685    0.000000   -1.000000    0.557280
  367.4000       8.748   -3.816894   -0.117045    0.000000   -1.000000    0.559050
  368.0000       8.917   -5.124314    0.102663    0.000000   -1.000000    0.560820
  368.6000       8.154   -5.142363    0.728197    0.000000   -1.000000    0.562570
  369.2000       8.326   -2.992908    0.002341    0.000000   -1.000000    0.564320
  369.8000       9.369   -1.728626   -0.413955    0.000000   -1.000000    0.566050
  370.4000       8.835   -1.336653   -0.012621    0.000000   -1.000000    0.567780
  371.0000       8.497   -1.771056    0.102405    0.000000   -1.000000    0.569500
  371.6000       9.295    0.158866    0.355096    0.000000   -1.000000    0.571210
  372.2000       9.120   -0.750580    0.855168    0.000000   -1.000000    0.572910
  372.8000       8.891   -0.147779    0.597160    0.000000   -1.000000    0.574600
  373.4000       8.901   -3.175859    0.496300    0.000000   -1.000000    0.576280
  374.0000       9.028   -3.075420   -0.766374    0.000000   -1.000000    0.577950
  374.6000       9.239    2.439738   -0.273492    0.000000   -1.000000    0.579620
  375.2000       9.421    3.955586   -0.320574    0.000000   -1.000000    0.581270
  375.8000       9.426    4.773574    0.400650    0.000000   -1.000000    0.582920
  376.4000      10.082    1.652216    0.515445    0.000000   -1.000000    0.584550
  377.0000       9.967   -2.384476    0.220282    0.000000   -1.000000    0.586180
  377.6000      10.480   -1.930979    0.238364    0.000000   -1.000000    0.587800
  378.2000      10.277   -2.032873    0.353952    0.000000   -1.000000    0.589410
  378.8000      10.495   -1.875092   -0.422721    0.000000   -1.000000    0.591010
  379.4000      10.526    0.700471   -1.057020    0.000000   -1.000000    0.592610
  380.0000      10.691    0.838491   -0.899074    0.000000   -1.000000    0.594190
  380.6000      10.916    0.744511   -0.724681    0.000000   -1.000000    0.595770
  381.2000      11.081    3.217258   -0.723412    0.000000   -1.000000    0.597340
  381.8000      10.840    1.664914   -0.501112    0.000000   -1.000000    0.598900
  382.4000      11.081   -3.806509   -0.514958    0.001483    0.996749    0.797498
  383.0000      11.315   -1.653691   -0.114956    0.006653    0.997536    0.787860
  383.6000      11.745   -1.361863    0.159187    0.011854    0.997166    0.790624
  384.2000      11.190    2.805452    0.367184    0.017083    0.936322    0.799320
  384.8000      11.349    4.282640   -0.142339    0.022337    0.997559    0.800790
  385.4000      12.025    4.023869   -0.139864    0.027615    0.996749    0.779691
  386.0000      11.523    7.358894    0.113032    0.032913    0.993270    0.788599
  386.6000      11.573    2.604791   -0.440553    0.038228    0.995466    0.802560
  387.2000      12.001   -2.233911   -0.209147    0.043559    0.925730    0.802164
  387.8000      11.683   -2.002835    0.100889    0.048901    0.970748    0.768165
  388.4000      11.781   -4.112371   -0.052942    0.054254    0.909679    0.779047
  389.0000      12.685   -0.254562   -0.284613    0.059612    0.985328    0.809497
  389.6000      12.347    1.087199   -0.531020    0.064975    0.986643    0.793488
  390.2000      13.019    0.370355   -0.234797    0.070339    0.977335    0.778267
  390.8000      13.020    0.841098    0.185379    0.075702    0.870193    0.768055
  391.4000      13.241    0.470779    0.231925    0.081060    0.965749    0.761321
  392.0000      13.138   -0.942937    0.371648    0.086411    0.982573    0.758878
  392.6000      13.296   -1.359312    0.585077    0.091752    0.931382    0.770512
  393.2000      13.951   -1.294729    0.570988    0.097081    0.932904    0.786882
  393.8000      13.879    1.159741    0.715176    0.102395    0.917769    0.781393
  394.4000      13.996    1.186129    0.242901    0.107691    0.899332    0.757391
  395.0000      12.896   -1.013799    0.057645    0.112968    0.901561    0.722798
  395.6000      13.765   -2.459125    0.213571    0.118222    0.884062    0.755641
  396.2000      12.923   -1.147334    0.377457    0.123451    0.941579    0.794170
  396.8000      13.996    1.848872    0.028061    0.128653    0.867277    0.766395
  397.4000      14.355    0.539818    0.037156    0.133826    0.927569    0.773648
  398.0000      14.888    0.544340    0.330325    0.138967    0.939518    0.781148
  398.6000      15.062    2.437689    0.391748    0.144076    0.890692    0.766622
  399.2000      15.158    1.234560    0.122763    0.149149    0.782775    0.746720
  399.8000      14.890    1.395421    0.175684    0.154186    0.878951    0.726997
  400.4000      15.159    1.473826    0.108751    0.159184    0.738049    0.742437
  401.0000      15.771    0.998263    0.076493    0.164142    0.791989    0.712355
  401.6000      14.949    0.574881    0.295171    0.169058    0.811742    0.731205
  402.2000      28.047    0.656215    0.483202    0.173932    0.871060    0.726200
  402.8000      27.748    1.481455    0.883677    0.178762    0.955297    0.749845
  403.4000      27.975    2.414499    0.916843    0.183548    0.833718    0.732707
  404.0000      28.378    1.602953    0.455560    0.188288    0.807164    0.734264
  404.6000      28.260   -0.214177    0.136770    0.192981    0.906993    0.735295
  405.2000      28.156   -0.025343   -0.005369    0.197627    0.825848    0.728373
  405.8000      28.947   -0.443814    0.108067    0.202226    0.927748    0.732095
  406.4000      28.924   -1.125755    0.097026    0.206777    0.955503    0.729363
  407.0000      28.911   -1.373020    0.134724    0.211281    0.772027    0.681955
  407.6000      29.266   -0.714550    0.288799    0.215736    0.806451    0.729617
  408.2000      29.566   -0.425875    0.162787    0.220143    0.633618    0.684012
  408.8000      29.520   -0.159034    0.238292    0.224503    0.803447    0.709685
  409.4000      29.229   -0.372568    0.328855    0.228815    0.892805    0.710064
  410.0000      29.928   -0.338697    0.190293    0.233080    0.927322    0.738799
  410.6000      30.038   -0.081044    0.236099    0.237298    0.754931    0.770999
  411.2000      30.395   -0.103634    0.284350    0.241471    0.840987    0.761435
  411.8000      30.007   -0.441098    0.231876    0.245599    0.960853    0.716031
  412.4000      31.063   -0.490032    0.380708    0.249682    0.884408    0.728440
  413.0000      31.097    0.378485    0.331337    0.253723    0.832527    0.746083
  413.6000      30.991    0.303303    0.350428    0.257720    0.922671    0.768472
  414.2000      30.884    0.023639    0.295990    0.261677    0.919012    0.727950
  414.8000      31.038    0.628092    0.334942    0.265594    0.901663    0.756550
  415.4000      31.556    0.473179    0.293775    0.269472    0.872373    0.776746
  416.0000      31.913    0.184527    0.254520    0.273312    0.912002    0.775073
  416.6000      31.969   -0.412710    0.255008    0.277116    0.881855    0.737778
  417.2000      31.621   -0.731026    0.342911    0.280886    0.887579    0.771132
  417.8000      31.791    0.355839    0.331456    0.284622    0.838310    0.740052
  418.4000      32.194    0.232278    0.227322    0.288326    0.808037    0.738526
  419.0000      32.919   -0.484310    0.133548    0.291999    0.782265    0.730432
  419.6000      32.719    0.072397    0.034724    0.295644    0.801072    0.756421
  420.2000      32.785    0.047523    0.119519    0.299261    0.815086    0.760370
  420.8000      33.076   -0.271776    0.200206    0.302853    0.861823    0.772001
  421.4000      32.902   -0.410237    0.237218    0.306419    0.756597    0.746689
  422.0000      33.062   -0.096601    0.355959    0.309963    0.779026    0.768496
  422.6000      32.962    0.744400    0.362257    0.313485    0.702621    0.695741
  423.2000      33.193    0.757010    0.285024    0.316987    0.819149    0.723352
  423.8000      33.929    0.942478    0.318415    0.320471    0.774568    0.741616
  424.4000      33.890    0.794762    0.236564    0.323937    0.824825    0.757663
  425.0000      34.353    0.604648    0.315752    0.327387    0.830308    0.730025
  425.6000      34.230    0.747551    0.369509    0.330822    0.813169    0.733040
  426.2000      34.446    0.784900    0.361731    0.334244    0.773554    0.721232
  426.8000      35.043    0.446750    0.397309    0.337654    0.695062    0.758471
  427.4000      35.542    0.160398    0.412814    0.341052    0.850374    0.752855
  428.0000      35.157    0.199245    0.386251    0.344441    0.780430    0.782729
  428.6000      35.472    0.200961    0.461868    0.347821    0.798167    0.786059
  429.2000      35.755    0.251759    0.370140    0.351194    0.649982    0.750105
  429.8000      35.132    0.485474    0.249262    0.354559    0.600371    0.748328
  430.4000      35.479    0.226492    0.200101    0.357919    0.851193    0.763225
  431.0000      35.351   -0.049296    0.275161    0.361273    0.816117    0.750048
  431.6000      35.892    0.066961    0.366440    0.364623    0.725695    0.755204
  432.2000      35.990    0.072945    0.362064    0.367969    0.723108    0.720790
  432.8000      35.746    0.297623    0.345998    0.371313    0.605240    0.689903
  433.4000      36.280    0.517861    0.330072    0.374654    0.791346    0.742867
  434.0000      36.700    0.558203    0.357196    0.377993    0.832558    0.742105
  434.6000      36.090    0.657237    0.417059    0.381330    0.837645    0.756600
  435.2000      36.974    0.412314    0.432973    0.384667    0.867004    0.776442
  435.8000      37.211    0.320292    0.446514    0.388004    0.756251    0.735103
  436.4000      37.187    0.375290    0.421744    0.391340    0.851107    0.736918
  437.0000      37.403    0.506406    0.367890    0.394676    0.832734    0.766283
  437.6000      37.490    0.380943    0.374004    0.398012    0.850508    0.695631
  438.2000      38.005    0.564133    0.408745    0.401349    0.795293    0.729873
  438.8000      38.114    0.562118    0.414896    0.404686    0.794544    0.736266
  439.4000      37.662    0.441445    0.464749    0.408024    0.718796    0.759567
  440.0000      38.501    0.330191    0.413412    0.411363    0.809730    0.753694
  440.6000      38.552    0.229605    0.451333    0.414702    0.749963    0.733029
  441.2000      38.379    0.476684    0.423279    0.418042    0.802054    0.774685
  441.8000      38.248    0.478902    0.392659    0.421382    0.739877    0.731103
  442.4000      37.838    0.372496    0.425638    0.424723    0.670427    0.743842
  443.0000      38.765    0.427724    0.441039    0.428064    0.777560    0.775117
  443.6000      39.063    0.461909    0.410459    0.431406    0.773126    0.747919
  444.2000      39.168    0.467725    0.450465    0.434747    0.633119    0.790119
  444.8000      39.141    0.204646    0.437622    0.438089    0.734935    0.771899
  445.4000      39.689    0.166565    0.436681    0.441430    0.822710    0.764376
  446.0000      40.101    0.459359    0.466297    0.444770    0.797974    0.747055
  446.6000      40.385    0.804581    0.491851    0.448110    0.794849    0.747573
  447.2000      40.314    0.788949    0.506658    0.451448    0.838737    0.756014
  447.8000      40.420    0.659012    0.478652    0.454786    0.826809    0.775072
  448.4000      41.157    0.593450    0.428386    0.458121    0.856988    0.770676
  449.0000      41.079    0.519765    0.384288    0.461455    0.784641    0.770264
  449.6000      40.985    0.477420    0.450198    0.464787    0.719604    0.761923
  450.2000      41.375    0.461071    0.521866    0.468116    0.880512    0.780514
  450.8000      41.713    0.405112    0.484591    0.471442    0.842509    0.746996
  451.4000      41.940    0.480816    0.483811    0.474766    0.760565    0.765391
  452.0000      42.211    0.555096    0.463917    0.478086    0.808100    0.756565
  452.6000      42.067    0.667198    0.441435    0.481403    0.703552    0.751278
  453.2000      42.303    0.606436    0.463091    0.484716    0.824073    0.731963
  453.8000      42.952    0.373011    0.480619    0.488024    0.832161    0.754853
  454.4000      43.175    0.365219    0.456744    0.491329    0.753798    0.784186
  455.0000      43.427    0.255723    0.484887    0.494629    0.765802    0.756300
  455.6000      43.695    0.405857    0.541988    0.497925    0.772581    0.752369
  456.2000      44.206    0.602691    0.555273    0.501215    0.813234    0.765340
  456.8000      44.321    0.493665    0.518911    0.504500    0.775485    0.780311
  457.4000      44.306    0.340831    0.483372    0.507780    0.744673    0.785790
  458.0000      44.792    0.370753    0.466650    0.511055    0.746313    0.772010
  458.6000      45.035    0.397735    0.490544    0.514323    0.833283    0.772175
  459.2000      45.041    0.417320    0.464996    0.517586    0.805348    0.791030
  459.8000      45.136    0.475794    0.473910    0.520843    0.734267    0.761160
  460.4000      45.269    0.668346    0.535024    0.524094    0.776522    0.771744
  461.0000      45.378    0.676649    0.566605    0.527339    0.820165    0.726663
  461.6000      45.820    0.585894    0.568927    0.530577    0.783195    0.754904
  462.2000      45.851    0.525800    0.530275    0.533809    0.758719    0.763279
  462.8000      45.688    0.659296    0.529033    0.537035    0.799775    0.742012
  463.4000      46.339    0.654469    0.542498    0.540254    0.781442    0.732586
  464.0000      46.459    0.467363    0.545912    0.543467    0.763869    0.749972
  464.6000      46.680    0.446144    0.575195    0.546673    0.735812    0.769084
  465.2000      46.839    0.660142    0.595584    0.549873    0.832293    0.783014
  465.8000      46.809    0.722542    0.618901    0.553066    0.877349    0.753074
  466.4000      46.651    0.573163    0.594475    0.556253    0.814540    0.766125
  467.0000      46.940    0.420531    0.564190    0.559433    0.764107    0.757925
  467.6000      46.973    0.578810    0.569785    0.562607    0.808757    0.750802
  468.2000      47.068    0.721943    0.577133    0.565775    0.819461    0.798347
  468.8000      47.369    0.678839    0.578229    0.568936    0.754368    0.806875
  469.4000      47.678    0.545457    0.584155    0.572092    0.766382    0.770261
  470.0000      47.854    0.722095    0.609962    0.575241    0.803431    0.776586
  470.6000      48.047    0.790067    0.666524    0.578384    0.795677    0.767809
  471.2000      48.239    0.818265    0.623269    0.581521    0.753035    0.765560
  471.8000      48.477    0.731438    0.539912    0.584653    0.739205    0.759701
  472.4000      48.551    0.818689    0.577587    0.587779    0.751642    0.762641
  473.0000      48.631    0.816022    0.621046    0.590900    0.831653    0.798707
  473.6000      48.940    0.471772    0.587417    0.594015    0.827747    0.775962
  474.2000      48.689    0.383335    0.595453    0.597125    0.793999    0.764428
  474.8000      48.779    0.564973    0.624267    0.600230    0.811489    0.794128
  475.4000      49.135    0.623533    0.601857    0.603330    0.810730    0.765299
  476.0000      49.230    0.631407    0.580033    0.606425    0.763432    0.745278
  476.6000      48.737    0.640515    0.600920    0.609516    0.779348    0.771545
  477.2000      49.295    0.677536    0.620305    0.612602    0.832991    0.778252
  477.8000      49.241    0.589369    0.591758    0.615684    0.825970    0.772805
  478.4000      49.514    0.407009    0.586953    0.618762    0.801211    0.780477
  479.0000      49.462    0.432182    0.647501    0.621836    0.867357    0.764270
  479.6000      49.735    0.664181    0.674347    0.624906    0.866501    0.734183
  480.2000      49.789    0.693540    0.671034    0.627972    0.839673    0.775669
  480.8000      49.893    0.590109    0.635618    0.631034    0.764505    0.732608
  481.4000      50.423    0.658336    0.562231    0.634093    0.742333    0.705277
  482.0000      50.672    0.721330    0.587891    0.637149    0.791789    0.724490
  482.6000      50.914    0.769633    0.615500    0.640201    0.732386    0.749274
  483.2000      50.972    0.719512    0.622073    0.643250    0.727637    0.789840
  483.8000      50.941    0.630983    0.621074    0.646297    0.764217    0.752755
  484.4000      50.883    0.760485    0.649003    0.649340    0.715831    0.708760
  485.0000      51.137    0.777658    0.636369    0.652380    0.673683    0.774329
  485.6000      51.315    0.696096    0.610589    0.655417    0.626202    0.767195
  486.2000      51.366    0.566266    0.642725    0.658451    0.817656    0.777491
  486.8000      50.603    0.760340    0.689074    0.661483    0.862368    0.747600
  487.4000      51.612    0.806887    0.699063    0.664512    0.810747    0.788308
  488.0000      51.640    0.675078    0.698894    0.667538    0.799144    0.790298
  488.6000      51.797    0.757143    0.714789    0.670561    0.799460    0.800698
  489.2000      51.922    0.872131    0.689261    0.673582    0.780418    0.783897
  489.8000      51.992    0.741714    0.667553    0.676599    0.728025    0.800589
  490.4000      52.460    0.665059    0.663633    0.679614    0.763103    0.785385
  491.0000      52.681    0.685312    0.648669    0.682626    0.810783    0.769090
  491.6000      52.619    0.814261    0.669201    0.685635    0.799241    0.813048
  492.2000      52.586    0.762799    0.663867    0.688640    0.772570    0.792541
  492.8000      52.527    0.705846    0.661535    0.691643    0.785371    0.756039
  493.4000      52.681    0.729364    0.676892    0.694642    0.821259    0.787985
  494.0000      52.454    0.698554    0.686213    0.697637    0.818614    0.760611
  494.6000      52.716    0.863779    0.690560    0.700629    0.731225    0.739303
  495.2000      52.075    0.759987    0.686763    0.703618    0.837304    0.785969
  495.8000      52.664    0.585895    0.679393    0.706602    0.836632    0.808835
  496.4000      52.811    0.698281    0.704393    0.709582    0.775313    0.761930
  497.0000      52.811    0.682431    0.702838    0.712558    0.739700    0.800070
  497.6000      52.998    0.674039    0.714065    0.715529    0.781857    0.788034
  498.2000      52.839    0.695320    0.726999    0.718496    0.826580    0.784357
  498.8000      53.076    0.657062    0.721243    0.721457    0.758514    0.776163
  499.4000      53.010    0.683299    0.730438    0.724413    0.776923    0.822956
  500.0000      53.060    0.705660    0.754573    0.727364    0.787077    0.812620
  500.6000      53.251    0.770710    0.775005    0.730309    0.826195    0.814165
  501.2000      53.330    0.683437    0.768850    0.733248    0.799822    0.828930
  501.8000      53.483    0.589194    0.770993    0.736180    0.725465    0.815101
  502.4000      53.599    0.756687    0.774172    0.739105    0.819001    0.797180
  503.0000      53.599    0.781478    0.780256    0.742024    0.818723    0.843929
  503.6000      53.515    0.773889    0.785431    0.744935    0.776667    0.821554
  504.2000      53.613    0.850365    0.776272    0.747839    0.741771    0.794337
  504.8000      53.772    0.773259    0.779110    0.750734    0.780807    0.785159
  505.4000      53.989    0.861382    0.746596    0.753622    0.812482    0.804240
  506.0000      54.054    0.907178    0.736174    0.756500    0.753442    0.735010
  506.6000      54.054    0.839585    0.741444    0.759369    0.780554    0.744227
  507.2000      53.864    1.025224    0.748956    0.762229    0.794822    0.760813
  507.8000      53.764    1.032742    0.810857    0.765079    0.792414    0.811950
  508.4000      53.830    0.891687    0.825649    0.767919    0.792159    0.833672
  509.0000      54.055    0.871789    0.797669    0.770748    0.782774    0.806224
  509.6000      54.089    0.915677    0.778706    0.773566    0.758916    0.787398
  510.2000      54.184    0.917629    0.778528    0.776372    0.796642    0.795034
  510.8000      54.184    0.818647    0.781483    0.779167    0.764897    0.834428
  511.4000      54.089    0.790084    0.762498    0.781950    0.840573    0.832625
  512.0000      54.024    0.794116    0.767679    0.784720    0.783821    0.797611
  512.6000      53.881    0.872291    0.760424    0.787476    0.776273    0.799838
  513.2000      53.734    0.716822    0.762612    0.790220    0.810207    0.816051
  513.8000      53.961    0.719685    0.764758    0.792949    0.792947    0.795511
  514.4000      54.317    0.819367    0.771504    0.795664    0.765078    0.829950
  515.0000      54.218    0.750697    0.753601    0.798365    0.810716    0.793189
  515.6000      54.076    0.729409    0.748697    0.801050    0.799096    0.777892
  516.2000      54.061    0.748728    0.744370    0.803720    0.797173    0.800608
  516.8000      54.543    0.844727    0.790838    0.806374    0.790590    0.797809
  517.4000      54.450    1.031527    0.848593    0.809011    0.844110    0.840457
  518.0000      54.578    1.107929    0.892219    0.811632    0.838740    0.805546
  518.6000      54.672    0.884160    0.885278    0.814235    0.854584    0.807350
  519.2000      54.512    0.722505    0.841698    0.816821    0.833317    0.826474
  519.8000      54.794    0.969814    0.820516    0.819389    0.823701    0.805874
  520.4000      54.541    1.033800    0.828118    0.821939    0.747005    0.787676
  521.0000      54.734    0.923512    0.816886    0.824470    0.793055    0.788419
  521.6000      54.666    1.018248    0.846831    0.826982    0.817824    0.837970
  522.2000      54.869    1.105661    0.847455    0.829474    0.837040    0.789960
  522.8000      54.661    0.984709    0.836619    0.831947    0.806857    0.788725
  523.4000      54.874    0.830874    0.870062    0.834399    0.850399    0.846985
  524.0000      55.170    0.765434    0.835992    0.836831    0.801940    0.828919
  524.6000      55.301    0.932577    0.809787    0.839242    0.766992    0.811431
  525.2000      55.301    1.026130    0.836408    0.841632    0.751207    0.813660
  525.8000      55.267    0.980298    0.852941    0.844001    0.800713    0.810652
  526.4000      55.341    0.880500    0.899489    0.846348    0.870912    0.805984
  527.0000      55.204    0.925308    0.932466    0.848672    0.871404    0.837144
  527.6000      55.298    0.997095    0.926376    0.850975    0.846027    0.841081
  528.2000      55.155    0.893372    0.921837    0.853255    0.835173    0.810305
  528.8000      55.458    0.872664    0.881648    0.855512    0.834982    0.803700
  529.4000      55.645    1.005638    0.844915    0.857746    0.852121    0.761679
  530.0000      55.645    1.004971    0.846420    0.859957    0.832620    0.775663
  530.6000      55.523    0.904216    0.838182    0.862144    0.807390    0.792172
  531.2000      55.480    0.942106    0.853582    0.864308    0.829706    0.801838
  531.8000      55.357    0.976318    0.868786    0.866448    0.817048    0.805799
  532.4000      55.421    0.954956    0.903432    0.868564    0.825377    0.860631
  533.0000      55.992    0.892271    0.946415    0.870656    0.876163    0.816541
  533.6000      55.943    0.812329    0.898897    0.872724    0.888945    0.794562
  534.2000      56.447    0.817880    0.917334    0.874768    0.884556    0.778969
  534.8000      56.433    0.938622    0.913086    0.876788    0.877575    0.822773
  535.4000      56.793    0.784573    0.884676    0.878783    0.880169    0.810341
  536.0000      57.065    0.785768    0.881994    0.880754    0.816575    0.809632
  536.6000      57.333    0.781665    0.898340    0.882700    0.848776    0.839269
  537.2000      57.614    0.819027    0.890162    0.884622    0.881194    0.811313
  537.8000      58.102    0.782593    0.902369    0.886520    0.866205    0.817347
  538.4000      58.353    0.615561    0.879699    0.888394    0.848694    0.799954
  539.0000      58.481    0.708062    0.871401    0.890243    0.863002    0.811006
  539.6000      58.640    0.922713    0.891893    0.892069    0.891208    0.809291
  540.2000      58.673    0.988460    0.910441    0.893870    0.881366    0.810230
  540.8000      59.191    1.092567    0.924425    0.895648    0.868237    0.820131
  541.4000      59.541    1.054623    0.929156    0.897402    0.895909    0.810520
  542.0000      59.842    0.911234    0.953830    0.899132    0.853100    0.817344
  542.6000      60.053    0.895115    0.964945    0.900839    0.825329    0.843922
  543.2000      61.058    0.772116    0.931514    0.902524    0.764659    0.823111
  543.8000      61.340    0.873826    0.893475    0.904185    0.788224    0.790142
  544.4000      61.448    0.739885    0.871920    0.905824    0.862128    0.807811
  545.0000      61.287    0.812537    0.910903    0.907440    0.867728    0.824672
  545.6000      61.460    0.814737    0.889497    0.909035    0.871001    0.832540
  546.2000      61.592    0.623761    0.884263    0.910608    0.863081    0.816302
  546.8000      61.925    0.580573    0.909305    0.912159    0.877073    0.821787
  547.4000      62.212    0.590322    0.928499    0.913690    0.846727    0.820189
  548.0000      61.974    0.790208    0.946313    0.915199    0.838283    0.814734
  548.6000      61.982    0.871199    0.955579    0.916689    0.852212    0.824973
  549.2000      62.203    0.952206    0.951665    0.918159    0.871306    0.829606
  549.8000      62.550    0.922154    0.926999    0.919609    0.844206    0.827563
  550.4000      62.550    0.890117    0.909242    0.921040    0.806024    0.828324
  551.0000      62.456    0.873520    0.958841    0.922453    0.845268    0.844327
  551.6000      62.794    0.735195    0.954405    0.923847    0.849038    0.852405
  552.2000      62.841    0.822825    0.979851    0.925223    0.844051    0.813309
  552.8000      62.951    0.936121    0.976353    0.926582    0.894250    0.804475
  553.4000      62.738    0.869891    0.954569    0.927925    0.910673    0.822974
  554.0000      63.015    0.939756    0.974010    0.929250    0.891494    0.841979
  554.6000      62.547    0.943524    0.949869    0.930560    0.834900    0.803302
  555.2000      63.254    0.868688    0.889510    0.931854    0.833697    0.795288
  555.8000      63.189    0.835765    0.897940    0.933134    0.825348    0.795551
  556.4000      62.906    0.864849    0.910398    0.934398    0.794585    0.824648
  557.0000      63.427    0.937970    0.940411    0.935649    0.801378    0.826229
  557.6000      63.427    0.994909    0.940032    0.936885    0.870145    0.822797
  558.2000      63.344    0.881279    0.930907    0.938109    0.838024    0.808538
  558.8000      63.535    0.917885    0.923800    0.939320    0.813666    0.820244
  559.4000      63.535    0.953415    0.975978    0.940518    0.858030    0.853059
  560.0000      63.582    0.982789    0.975415    0.941704    0.826422    0.841991
  560.6000      63.947    0.946914    0.948627    0.942879    0.840393    0.791955
  561.2000      63.947    0.843376    0.952248    0.944043    0.884520    0.829212
  561.8000      64.005    0.923536    0.959815    0.945196    0.874646    0.828596
  562.4000      63.896    0.855292    0.945836    0.946338    0.894718    0.845801
  563.0000      64.070    0.675325    0.946657    0.947470    0.884099    0.828998
  563.6000      64.070    0.661157    0.971533    0.948593    0.886966    0.829979
  564.2000      64.235    0.836744    0.975565    0.949706    0.832972    0.801823
  564.8000      64.282    0.835662    0.960026    0.950811    0.823395    0.821502
  565.4000      64.399    0.818000    0.973258    0.951906    0.837240    0.819543
  566.0000      64.399    0.772743    0.981602    0.952993    0.832817    0.804370
  566.6000      64.564    0.853689    0.974601    0.954071    0.849918    0.804186
  567.2000      64.391    0.744295    0.939251    0.955141    0.849637    0.795173
  567.8000      64.512    0.715574    0.929321    0.956203    0.854567    0.821832
  568.4000      64.851    0.880205    0.954447    0.957258    0.842008    0.797747
  569.0000      64.724    0.920790    0.965480    0.958305    0.858226    0.825047
  569.6000      64.724    0.907191    0.960222    0.959344    0.858232    0.832375
  570.2000      64.629    0.791217    0.945709    0.960375    0.829035    0.830784
  570.8000      64.485    0.885488    0.964645    0.961399    0.858618    0.822840
  571.4000      64.365    1.073480    0.995395    0.962416    0.889715    0.840267
  572.0000      64.672    0.991739    0.958717    0.963425    0.838141    0.835717
  572.6000      64.672    0.863937    0.943211    0.964426    0.835033    0.837154
  573.2000      64.502    0.953314    0.942426    0.965420    0.846416    0.817264
  573.8000      64.672    1.011806    0.912537    0.966406    0.817259    0.806121
  574.4000      64.578    1.020164    0.920810    0.967384    0.798265    0.828334
  575.0000      64.607    0.934262    0.953608    0.968354    0.836473    0.824297
  575.6000      64.724    0.890856    0.953269    0.969317    0.855358    0.820430
  576.2000      64.672    0.923865    0.957695    0.970270    0.830728    0.822609
  576.8000      64.635    0.955748    0.949013    0.971216    0.825781    0.820716
  577.4000      65.175    0.893200    0.940997    0.972152    0.821510    0.826922
  578.0000      65.166    0.919729    0.968800    0.973079    0.837221    0.828344
  578.6000      65.275    0.936132    0.951330    0.973997    0.828480    0.797871
  579.2000      65.439    0.981239    0.938157    0.974905    0.856123    0.817436
  579.8000      65.504    0.958171    0.944646    0.975804    0.851754    0.792248
  580.4000      65.266    1.044757    0.951651    0.976691    0.828537    0.766558
  581.0000      65.504    1.016741    0.969601    0.977569    0.826543    0.809974
  581.6000      65.504    0.980925    0.972722    0.978434    0.847448    0.827451
  582.2000      65.504    0.942371    0.967794    0.979289    0.891278    0.831747
  582.8000      65.504    0.887683    1.000197    0.980132    0.923967    0.831594
  583.4000      65.340    1.020990    0.992696    0.980962    0.843051    0.833209
  584.0000      65.212    1.069247    0.977025    0.981780    0.850072    0.816015
  584.6000      65.237    0.974838    0.989528    0.982584    0.858568    0.813222
  585.2000      65.331    0.953099    0.962152    0.983375    0.843984    0.813626
  585.8000      65.331    0.925284    0.977102    0.984152    0.839276    0.814545
  586.4000      65.204    0.865038    1.014912    0.984914    0.853852    0.839126
  587.0000      65.204    0.875099    1.008670    0.985662    0.861733    0.819410
  587.6000      65.140    0.954134    1.064377    0.986395    0.859060    0.837392
  588.2000      64.811    1.036622    1.056519    0.987111    0.865855    0.853583
  588.8000      65.204    1.015789    0.995989    0.987812    0.847904    0.826291
  589.4000      65.109    0.915558    1.027698    0.988496    0.851563    0.822700
  590.0000      65.204    0.999141    1.066636    0.989163    0.856294    0.836851
  590.6000      64.960    1.048536    0.994180    0.989813    0.829475    0.839168
  591.2000      65.204    1.024988    1.011868    0.990446    0.811764    0.825035
  591.8000      65.204    0.931709    1.014210    0.991060    0.845983    0.836262
  592.4000      64.945    0.992458    1.018171    0.991656    0.873739    0.867271
  593.0000      65.204    0.986684    1.032602    0.992233    0.866105    0.831239
  593.6000      65.551    1.011047    1.051781    0.992791    0.848173    0.824936
  594.2000      65.724    1.038339    1.020472    0.993330    0.831547    0.820114
  594.8000      65.724    1.012165    1.030605    0.993849    0.834451    0.797675
  595.4000      65.898    1.033163    0.990203    0.994349    0.842512    0.814808
  596.0000      65.898    1.025627    1.019333    0.994828    0.919437    0.817300
  596.6000      66.071    0.917399    1.038956    0.995287    0.916012    0.821724
  597.2000      66.070    0.818283    1.014032    0.995725    0.931896    0.802812
  597.8000      66.079    0.887107    1.038155    0.996143    0.842621    0.810193
  598.4000      65.810    0.968425    1.036264    0.996539    0.878726    0.829774
  599.0000      65.812    1.015806    1.001447    0.996914    0.858826    0.828767
  599.6000      65.954    1.050509    0.978127    0.997269    0.859500    0.828653
  600.2000      65.943    1.063880    0.993541    0.997601    0.871714    0.855558
  600.8000      65.667    1.002059    1.018342    0.997913    0.903696    0.837004
  601.4000      65.897    0.898365    1.024891    0.998202    0.890636    0.838229
  602.0000      65.586    0.896918    1.049489    0.998471    0.920490    0.858809
  602.6000      65.897    0.899989    1.042378    0.998717    0.864279    0.847989
  603.2000      65.897    1.057265    1.030195    0.998942    0.862830    0.821202
  603.8000      65.897    1.341550    1.040364    0.999145    0.857722    0.828580
  604.4000      65.897    0.915322    1.008438    0.999326    0.894239    0.838831
  605.0000      65.768    0.980953    0.977810    0.999486    0.855453    0.807826
  605.6000      65.668    1.004919    1.001371    0.999624    0.875354    0.815571
  606.2000      65.732    0.874698    1.022991    0.999740    0.909061    0.847601
  606.8000      65.802    0.962481    1.004165    0.999835    0.849341    0.822610
  607.4000      65.394    0.991733    0.984665    0.999908    0.867590    0.804924
  608.0000      65.723    0.955698    0.970398    0.999960    0.871324    0.808079
  608.6000      65.366    1.018715    0.976444    0.999991    0.835821    0.798655
  609.2000      65.723    0.940031    0.962339    1.000000    0.822871    0.794653
  609.8000      65.426    0.892037    0.961919    0.999988    0.854259    0.805133
  610.4000      65.549    0.895531    0.996649    0.999955    0.867178    0.818112
  611.0000      65.376    0.899326    1.005088    0.999901    0.900038    0.819511
  611.6000      64.883    0.827314    0.969366    0.999826    0.867248    0.832347
  612.2000      65.376    0.925969    0.983420    0.999730    0.916595    0.825520
  612.8000      65.039    0.974468    0.995667    0.999614    0.881121    0.828863
  613.4000      65.203    0.977312    1.002557    0.999477    0.869608    0.848591
  614.0000      64.831    0.881580    1.002958    0.999320    0.874030    0.854509
  614.6000      64.654    0.913420    1.026905    0.999142    0.882017    0.847429
  615.2000      64.916    0.924317    1.037529    0.998944    0.906041    0.807437
  615.8000      64.908    0.920576    1.029151    0.998727    0.877550    0.842391
  616.4000      64.857    1.023385    1.004097    0.998489    0.857774    0.865889
  617.0000      64.783    0.934349    1.023943    0.998231    0.844228    0.872581
  617.6000      64.626    0.873348    1.025981    0.997954    0.862455    0.839607
  618.2000      64.856    0.894480    1.041426    0.997657    0.855800    0.842953
  618.8000      64.528    0.883758    1.039032    0.997340    0.881734    0.824919
  619.4000      64.842    0.864625    1.042567    0.997004    0.861488    0.841011
  620.0000      64.842    0.933359    1.048446    0.996649    0.908150    0.881180
  620.6000      64.625    0.998409    1.015112    0.996274    0.873961    0.868250
  621.2000      64.728    0.863217    0.985366    0.995880    0.875908    0.842711
  621.8000      64.841    0.937262    1.029370    0.995467    0.935777    0.839909
  622.4000      64.677    1.020451    1.001180    0.995035    0.911861    0.837225
  623.0000      64.262    1.012415    0.979673    0.994584    0.880996    0.846748
  623.6000      64.528    0.991850    0.990855    0.994114    0.888416    0.848305
  624.2000      64.379    1.059947    1.035633    0.993625    0.890253    0.878145
  624.8000      63.953    0.897695    0.979568    0.993118    0.881388    0.853110
  625.4000      64.351    0.881473    0.972357    0.992591    0.879306    0.836812
  626.0000      64.074    0.977960    1.012230    0.992046    0.886187    0.838616
  626.6000      64.630    1.013493    0.990161    0.991482    0.921945    0.836862
  627.2000      64.400    1.124256    0.993717    0.990899    0.889177    0.807937
  627.8000      64.503    1.251013    1.009716    0.990298    0.889376    0.823724
  628.4000      64.314    1.145357    0.991092    0.989678    0.863940    0.833935
  629.0000      64.803    1.005002    0.960805    0.989040    0.863983    0.789612
  629.6000      64.850    1.008141    0.941600    0.988382    0.826592    0.833258
  630.2000      64.786    1.112522    0.948120    0.987706    0.929339    0.863512
  630.8000      64.563    1.042942    1.007105    0.987012    0.918637    0.845996
  631.4000      64.398    1.153778    1.008548    0.986298    0.911400    0.848661
  632.0000      64.564    1.531845    0.993142    0.985566    0.911814    0.848682
  632.6000      64.399    1.414299    0.987872    0.984815    0.913865    0.858787
  633.2000      64.173    1.227309    0.989922    0.984045    0.872175    0.853583
  633.8000      64.263    1.044598    0.947822    0.983257    0.885582    0.855627
  634.4000      64.225    0.943038    0.948169    0.982449    0.804154    0.867117
  635.0000      64.066    0.919853    0.973573    0.981622    0.887866    0.856154
  635.6000      63.987    0.936503    0.982701    0.980776    0.918162    0.813758
  636.2000      63.886    1.002908    1.014995    0.979911    0.900592    0.854056
  636.8000      63.334    1.190535    0.986061    0.979026    0.892382    0.832000
  637.4000      63.161    1.148726    1.008883    0.978122    0.846960    0.847448
  638.0000      63.491    1.195703    1.012873    0.977198    0.910257    0.855881
  638.6000      63.128    1.023497    1.000523    0.976254    0.934482    0.868043
  639.2000      62.717    0.910009    1.035677    0.975290    0.911481    0.840540
  639.8000      62.504    1.086762    1.102287    0.974306    0.963477    0.833255
  640.4000      62.490    1.017122    1.103986    0.973301    0.924174    0.862104
  641.0000      62.871    0.954532    1.066012    0.972276    0.896693    0.886410
  641.6000      62.579    1.084072    1.013887    0.971230    0.878055    0.849186
  642.2000      62.602    1.078436    0.990046    0.970163    0.897607    0.857395
  642.8000      62.368    1.072735    1.003854    0.969074    0.891716    0.830943
  643.4000      62.642    0.886618    0.947767    0.967963    0.864069    0.862807
  644.0000      62.879    0.836151    0.915485    0.966831    0.878960    0.834738
  644.6000      62.750    0.960688    0.981999    0.965676    0.907940    0.847965
  645.2000      62.649    1.201184    1.008105    0.964498    0.908498    0.837264
  645.8000      62.048    1.228164    0.984656    0.963297    0.903680    0.882537
  646.4000      61.901    1.140224    1.030058    0.962072    0.896029    0.861980
  647.0000      61.984    1.012681    0.986930    0.960823    0.910743    0.840754
  647.6000      62.047    0.908066    0.941057    0.959550    0.918585    0.871262
  648.2000      61.378    0.833081    0.895517    0.958251    0.902491    0.860988
  648.8000      61.553    0.948943    0.883673    0.956927    0.921692    0.867005
  649.4000      60.710    1.092091    0.943253    0.955578    0.871184    0.873571
  650.0000      60.988    0.995798    0.962845    0.954201    0.906952    0.871232
  650.6000      60.650    0.924958    0.934616    0.952798    0.949321    0.846661
  651.2000      59.764    1.180527    0.981325    0.951367    0.928056    0.868190
  651.8000      59.701    1.123378    0.975619    0.949908    0.891716    0.880124
  652.4000      60.071    0.964539    0.932583    0.948420    0.918358    0.843418
  653.0000      59.248    1.032322    0.967948    0.946902    0.879348    0.826526
  653.6000      59.691    0.952484    0.944026    0.945355    0.913990    0.845335
  654.2000      59.428    0.837441    0.905063    0.943777    0.910812    0.874398
  654.8000      59.267    0.793180    0.867859    0.942167    0.931448    0.833844
  655.4000      58.533    0.843392    0.840889    0.940526    0.924951    0.868121
  656.0000      58.096    0.700003    0.843189    0.938851    0.870373    0.848305
  656.6000      57.696    0.666579    0.889854    0.937144    0.957305    0.854835
  657.2000      57.428    0.764950    0.886664    0.935403    0.898705    0.811437
  657.8000      57.515    0.849277    0.948963    0.933627    0.880059    0.820595
  658.4000      57.515    0.828439    0.955512    0.931816    0.947212    0.840347
  659.0000      57.515    0.935715    0.935649    0.929969    0.962803    0.824751
  659.6000      57.125    1.043471    0.960856    0.928086    0.962708    0.863490
  660.2000      57.151    1.086829    0.986548    0.926166    0.903387    0.876360
  660.8000      56.945    0.908481    0.931990    0.924208    0.873261    0.869686
  661.4000      56.994    0.895760    0.906765    0.922212    0.878373    0.865189
  662.0000      56.951    0.981728    0.960307    0.920177    0.887887    0.862630
  662.6000      57.341    1.117900    0.988367    0.918103    0.916138    0.867430
  663.2000      57.010    1.312843    0.989475    0.915989    0.971005    0.876141
  663.8000      57.126    1.268695    0.960489    0.913835    0.931396    0.886508
  664.4000      57.054    1.111609    0.960104    0.911641    0.898580    0.882993
  665.0000      57.057    1.175704    0.925922    0.909406    0.981022    0.917591
  665.6000      57.428    1.056585    0.942064    0.907129    0.952115    0.877814
  666.2000      56.897    1.069897    0.958158    0.904811    0.900650    0.857185
  666.8000      57.285    1.080395    0.961543    0.902452    0.925160    0.876223
  667.4000      57.190    1.018889    0.936991    0.900050    0.897964    0.893164
  668.0000      56.716    1.114505    0.954163    0.897606    0.941807    0.897802
  668.6000      56.781    0.985613    0.962924    0.895120    0.915503    0.857970
  669.2000      56.921    0.929197    0.925391    0.892592    0.935529    0.912996
  669.8000      56.921    0.940332    0.939762    0.890022    0.946280    0.858203
  670.4000      56.937    0.835653    0.928629    0.887410    0.939718    0.859506
  671.0000      56.886    0.982118    0.921174    0.884755    0.935904    0.860567
  671.6000      56.842    1.447256    0.961363    0.882059    0.902379    0.855075
  672.2000      56.588    1.180289    0.953481    0.879321    0.908319    0.881943
  672.8000      56.531    1.080452    0.931449    0.876543    0.921413    0.884621
  673.4000      56.772    0.933942    0.931184    0.873723    0.937590    0.865723
  674.0000      56.390    0.883427    0.916391    0.870863    0.942826    0.889471
  674.6000      56.309    0.954173    0.945630    0.867963    0.952350    0.864066
  675.2000      56.255    1.102897    0.925683    0.865024    0.882171    0.852652
  675.8000      56.320    1.068161    0.926534    0.862046    0.919395    0.854063
  676.4000      56.193    0.935840    0.906407    0.859030    0.913252    0.859577
  677.0000      55.810    0.853434    0.874414    0.855976    0.904379    0.865536
  677.6000      55.522    0.978159    0.873662    0.852886    0.863956    0.855580
  678.2000      55.375    0.912373    0.909691    0.849760    0.954963    0.878352
  678.8000      55.141    0.925576    0.930440    0.846599    0.965555    0.855170
  679.4000      55.284    1.047670    0.950174    0.843404    0.918828    0.853427
  680.0000      55.292    0.852569    1.017789    0.840176    0.872398    0.873525
  680.6000      55.349    0.788702    1.004367    0.836916    0.890622    0.837484
  681.2000      55.300    0.863504    1.004006    0.833625    0.882924    0.822984
  681.8000      55.011    0.986722    0.956396    0.830304    0.874215    0.863485
  682.4000      55.284    0.779900    0.868329    0.826954    0.908845    0.851194
  683.0000      54.884    0.756820    0.853356    0.823577    0.947557    0.830315
  683.6000      54.810    0.791162    0.800466    0.820172    0.897733    0.793893
  684.2000      54.430    0.783900    0.792562    0.816743    0.822151    0.834840
  684.8000      53.682    0.850242    0.827365    0.813289    0.863371    0.847903
  685.4000      54.429    0.734382    0.761923    0.809811    0.896073    0.851875
  686.0000      54.421    0.559503    0.734392    0.806313    0.798999    0.853993
  686.6000      54.435    0.522949    0.652742    0.802793    0.880970    0.817837
  687.2000      53.761    0.566652    0.622512    0.799254    0.838938    0.833965
  687.8000      53.676    0.540690    0.686535    0.795697    0.854898    0.819220
  688.4000      53.679    0.598113    0.695448    0.792123    0.882949    0.813341
  689.0000      53.387    0.522123    0.701057    0.788533    0.890455    0.848914
  689.6000      53.119    0.477128    0.713787    0.784929    0.888694    0.866504
  690.2000      53.679    0.569417    0.719906    0.781311    0.855385    0.797640
  690.8000      53.275    0.753526    0.803237    0.777681    0.917394    0.868562
  691.4000      53.346    0.617796    0.748786    0.774041    0.915351    0.831088
  692.0000      52.978    0.628689    0.771002    0.770390    0.932091    0.818128
  692.6000      52.951    0.655624    0.777370    0.766731    0.902383    0.851228
  693.2000      52.981    0.614408    0.775506    0.763064    0.933620    0.867465
  693.8000      51.784    0.857266    0.746677    0.759391    0.973377    0.839076
  694.4000      51.619    0.957886    0.750092    0.755712    0.959492    0.836918
  695.0000      51.452    0.780978    0.715989    0.752028    0.927057    0.831697
  695.6000      51.571    0.783804    0.679047    0.748342    0.915680    0.846396
  696.2000      51.514    0.681231    0.687742    0.744653    0.863139    0.858804
  696.8000      51.282    0.551836    0.685866    0.740962    0.915709    0.827405
  697.4000      51.441    0.560321    0.763123    0.737270    0.934444    0.840040
  698.0000      51.282    0.820076    0.745313    0.733579    0.863316    0.855281
  698.6000      50.735    0.894974    0.720744    0.729889    0.937966    0.839754
  699.2000      50.736    1.056629    0.801859    0.726200    0.927176    0.891376
  699.8000      50.231    0.925344    0.819237    0.722514    0.945222    0.878464
  700.4000      50.536    0.855110    0.756761    0.718831    0.952398    0.880188
  701.0000      50.244    0.967081    0.716548    0.715152    0.927709    0.868933
  701.6000      50.081    0.851136    0.733855    0.711477    0.934853    0.850273
  702.2000      50.506    0.920608    0.591175    0.707808    0.988285    0.865321
  702.8000      49.838    0.855912    0.586573    0.704144    0.985890    0.851775
  703.4000      49.843    0.924429    0.666035    0.700486    0.935094    0.839271
  704.0000      49.068    0.815590    0.716284    0.696835    0.918576    0.847731
  704.6000      49.252    0.669560    0.717192    0.693192    0.926362    0.901127
  705.2000      49.281    0.708835    0.678866    0.689555    0.916883    0.846047
  705.8000      48.923    0.704287    0.734413    0.685927    0.936516    0.831352
  706.4000      49.123    0.747516    0.753944    0.682307    0.989404    0.863694
  707.0000      48.721    0.666478    0.672225    0.678695    0.918993    0.881649
  707.6000      48.798    0.856698    0.650795    0.675092    0.932689    0.888743
  708.2000      48.363    0.837087    0.673332    0.671499    0.934076    0.899553
  708.8000      48.095    0.657584    0.620496    0.667915    0.896608    0.893855
  709.4000      48.311    0.595642    0.722166    0.664340    0.976996    0.882165
  710.0000      48.724    0.591455    0.681008    0.660775    0.971137    0.895694
  710.6000      48.551    0.517537    0.669717    0.657220    0.957827    0.871322
  711.2000      48.176    0.681155    0.707245    0.653675    0.966236    0.862218
  711.8000      47.836    0.714616    0.619398    0.650140    0.952332    0.866736
  712.4000      47.339    0.461407    0.662057    0.646615    0.958178    0.855794
  713.0000      46.968    0.582316    0.763075    0.643101    0.922085    0.860487
  713.6000      47.032    0.484272    0.728487    0.639597    0.893945    0.888919
  714.2000      47.087    0.558774    0.639300    0.636103    0.832616    0.877503
  714.8000      46.931    0.659527    0.647498    0.632620    0.954368    0.898416
  715.4000      46.833    0.748817    0.617313    0.629147    0.873817    0.879300
  716.0000      46.746    0.694248    0.563989    0.625684    0.893851    0.829108
  716.6000      46.699    0.495593    0.602560    0.622232    0.810183    0.811211
  717.2000      46.721    0.394667    0.571624    0.618790    0.966225    0.860618
  717.8000      46.383    0.589890    0.544024    0.615358    0.915135    0.895231
  718.4000      46.303    0.615481    0.550382    0.611936    0.942043    0.823297
  719.0000      46.271    0.746610    0.627302    0.608524    0.987320    0.840269
  719.6000      46.471    0.906779    0.703406    0.605122    0.948817    0.868368
  720.2000      46.138    0.761622    0.581414    0.601730    0.855628    0.833105
  720.8000      45.651    0.573973    0.538129    0.598347    0.947851    0.850336
  721.4000      46.019    0.725222    0.595749    0.594975    0.813532    0.821252
  722.0000      45.434    0.758785    0.633154    0.591611    0.814387    0.830172
  722.6000      45.282    0.686222    0.629404    0.588258    0.843876    0.838858
  723.2000      45.449    0.636407    0.592117    0.584913    0.855690    0.864250
  723.8000      45.462    0.778464    0.553521    0.581577    0.871848    0.864317
  724.4000      45.501    0.579932    0.515227    0.578251    0.768983    0.864546
  725.0000      45.389    0.547201    0.498149    0.574934    0.877925    0.850194
  725.6000      45.064    0.631051    0.439119    0.571625    0.788933    0.799956
  726.2000      44.948    0.438957    0.441576    0.568325    0.883474    0.812668
  726.8000      44.482    0.266527    0.453223    0.565034    0.871824    0.840420
  727.4000      43.675    0.369165    0.399492    0.561751    0.824145    0.840528
  728.0000      44.290    0.435535    0.395826    0.558477    0.950101    0.847244
  728.6000      43.352    0.543585    0.527860    0.555211    0.947845    0.819518
  729.2000      43.677    0.494531    0.619192    0.551954    0.921559    0.880633
  729.8000      43.842    0.374049    0.632289    0.548705    0.918707    0.796037
  730.4000      43.322    0.379850    0.575088    0.545464    0.975749    0.856193
  731.0000      42.906    0.603124    0.544643    0.542232    0.938846    0.885814
  731.6000      43.678    0.541429    0.535726    0.539007    0.892446    0.874820
  732.2000      43.006    0.602366    0.553051    0.535791    0.901134    0.883369
  732.8000      43.295    0.482336    0.543590    0.532584    0.998159    0.859228
  733.4000      43.166    0.538777    0.579843    0.529384    0.934211    0.881543
  734.0000      42.552    0.675567    0.556246    0.526194    0.886410    0.887204
  734.6000      42.614    0.293874    0.522594    0.523011    0.819861    0.832806
  735.2000      42.614    0.466617    0.553322    0.519838    0.920609    0.841267
  735.8000      42.330    0.649411    0.562171    0.516673    0.861594    0.855727
  736.4000      42.077    0.437435    0.571624    0.513516    0.958555    0.829318
  737.0000      42.032    0.413043    0.574306    0.510369    0.921089    0.872949
  737.6000      41.619    0.571599    0.495100    0.507232    0.953651    0.868422
  738.2000      41.191    0.664189    0.551922    0.504103    0.947806    0.852745
  738.8000      40.941    0.448895    0.594044    0.500984    0.998118    0.886839
  739.4000      41.010    0.605587    0.516406    0.497875    0.992964    0.880326
  740.0000      40.946    0.912580    0.494413    0.494776    0.874714    0.914096
  740.6000      41.011    0.790726    0.431112    0.491688    0.965469    0.909553
  741.2000      40.971    0.495143    0.462147    0.488610    0.982617    0.854377
  741.8000      40.867    0.569703    0.425515    0.485543    0.983264    0.876144
  742.4000      40.349    0.449528    0.433966    0.482486    0.927412    0.904315
  743.0000      39.485    0.443066    0.514310    0.479442    0.991123    0.899460
  743.6000      39.604    0.452258    0.625160    0.476409    0.933125    0.898385
  744.2000      39.704    0.581756    0.610602    0.473388    0.882854    0.851221
  744.8000      39.365    0.554082    0.475810    0.470380    0.963721    0.887329
  745.4000      39.276    0.504549    0.513380    0.467384    0.956848    0.888894
  746.0000      38.976    0.479323    0.496320    0.464402    0.841352    0.893085
  746.6000      38.430    0.377613    0.514276    0.461432    0.911522    0.940237
  747.2000      38.861    0.389209    0.507890    0.458476    0.860671    0.910743
  747.8000      38.616    0.667269    0.472662    0.455534    0.973212    0.900185
  748.4000      38.399    0.770332    0.432724    0.452607    0.997862    0.862768
  749.0000      38.043    0.678622    0.364141    0.449693    0.895750    0.809539
  749.6000      37.849    0.568848    0.397192    0.446795    0.944527    0.834943
  750.2000      37.529    0.527365    0.417288    0.443911    0.926656    0.860213
  750.8000      37.376    0.497644    0.465806    0.441042    0.940933    0.839777
  751.4000      37.006    0.442339    0.489848    0.438189    0.997862    0.856016
  752.0000      37.291    0.644822    0.506795    0.435351    0.855459    0.856974
  752.6000      36.988    0.654474    0.438479    0.432529    0.997224    0.885770
  753.2000      36.815    0.387674    0.396760    0.429722    0.911605    0.831655
  753.8000      36.897    0.346068    0.363734    0.426932    0.820759    0.849441
  754.4000      36.543    0.257204    0.376700    0.424157    0.909113    0.827964
  755.0000      36.100    0.179140    0.398427    0.421398    0.989500    0.896416
  755.6000      35.999    0.147497    0.437787    0.418656    0.904353    0.849585
  756.2000      36.361    0.281909    0.484593    0.415928    0.903333    0.827235
  756.8000      35.566    0.569689    0.323073    0.413217    0.802554    0.820185
  757.4000      35.468    0.721009    0.278209    0.410522    0.957741    0.714182
  758.0000      35.669    0.589131    0.242119    0.407842    0.767997    0.833549
  758.6000      35.403    0.325061    0.144247    0.405177    0.878560    0.793874
  759.2000      35.065    0.337918    0.260529    0.402527    0.853030    0.788880
  759.8000      34.831    0.711391    0.343147    0.399892    0.823799    0.781925
  760.4000      35.079    0.588158    0.264097    0.397272    0.910108    0.752017
  761.0000      35.369    0.102619    0.138093    0.394665    0.741367    0.749697
  761.6000      34.693    0.421125    0.279855    0.392073    0.994559    0.796310
  762.2000      34.394    0.650963    0.458071    0.389494    0.838022    0.843380
  762.8000      34.192    0.306778    0.432647    0.386928    0.915449    0.830900
  763.4000      34.523    0.060370    0.254222    0.384374    0.856913    0.840428
  764.0000      34.344    0.344303    0.292804    0.381833    0.938362    0.862238
  764.6000      33.914    0.381227    0.327036    0.379303    0.974519    0.843847
  765.2000      34.243    0.370568    0.363580    0.376783    0.813605    0.847892
  765.8000      33.848    0.500195    0.529315    0.374275    0.859784    0.802160
  766.4000      33.775    0.712268    0.304230    0.371776    0.942394    0.828614
  767.0000      33.753    0.351136    0.368461    0.369286    0.895405    0.844128
  767.6000      33.753    0.266545    0.439949    0.366804    0.978665    0.841955
  768.2000      33.415    0.373073    0.454547    0.364331    0.915644    0.827643
  768.8000      33.330    0.308290    0.324999    0.361865    0.989201    0.934856
  769.4000      33.101    0.450997    0.439314    0.359406    0.997210    0.921982
  770.0000      32.917    0.474159    0.455914    0.356953    0.913264    0.864851
  770.6000      32.916    0.613622    0.350044    0.354505    0.932254    0.926678
  771.2000      32.489    0.426638    0.342183    0.352062    0.936191    0.888704
  771.8000      32.724    0.343817    0.488661    0.349624    0.918576    0.819766
  772.4000      32.122    0.425610    0.429602    0.347188    0.860736    0.824152
  773.0000      31.893    0.434165    0.291116    0.344756    0.876332    0.892847
  773.6000      32.098    0.601625    0.294861    0.342327    0.937236    0.908757
  774.2000      32.225    0.550196    0.289096    0.339899    0.955483    0.887620
  774.8000      31.654    0.388564    0.356006    0.337473    0.900048    0.855454
  775.4000      31.329    0.058389    0.293732    0.335048    0.977616    0.838125
  776.0000      31.181    0.172414    0.528490    0.332624    0.947569    0.863411
  776.6000      30.690    0.095381    0.547333    0.330199    0.902881    0.865207
  777.2000      30.662    0.523094    0.544905    0.327774    0.898076    0.898364
  777.8000      30.636    0.601893    0.483870    0.325349    0.781285    0.848233
  778.4000      30.869    0.631173    0.289112    0.322923    0.993338    0.893312
  779.0000      30.637    0.317319    0.252636    0.320496    0.914073    0.857305
  779.6000      30.570    0.313675    0.311888    0.318067    0.940268    0.897566
  780.2000      30.164    0.552694    0.413394    0.315638    0.879411    0.886781
  780.8000      29.611    0.169561    0.325073    0.313206    0.818430    0.862508
  781.4000      29.665    0.382649    0.287989    0.310773    0.902859    0.873076
  782.0000      29.247    0.546106    0.408011    0.308339    0.921609    0.904775
  782.6000      29.309    0.482735    0.292503    0.305904    0.969530    0.937638
  783.2000      28.961    0.051881    0.234743    0.303467    0.989079    0.852125
  783.8000      28.761   -0.018477    0.287255    0.301029    0.996214    0.928354
  784.4000      28.534    0.180183    0.126915    0.298590    0.996786    0.931769
  785.0000      27.669    0.107567    0.292058    0.296151    0.990454    0.905252
  785.6000      27.817    0.378359    0.281747    0.293711    0.981693    0.879744
  786.2000      27.496    0.850268    0.374247    0.291272    0.729193    0.898152
  786.8000      27.108    0.513745    0.328260    0.288834    0.838061    0.856421
  787.4000      26.753   -0.097854    0.159765    0.286397    0.982520    0.907018
  788.0000      27.040    0.406743    0.214639    0.283963    0.996767    0.922718
  788.6000      26.844    0.492135    0.290599    0.281530    0.997210    0.896478
  789.2000      26.408    0.435879    0.204908    0.279102    0.868175    0.923914
  789.8000      26.653    0.185274    0.309221    0.276677    0.825987    0.923314
  790.4000      25.991   -0.016077    0.192249    0.274258    0.929542    0.867304
  791.0000      25.739    0.245573    0.000510    0.271844    0.867828    0.871275
  791.6000      24.933    0.340379    0.141370    0.269437    0.982545    0.884312
  792.2000      25.021    0.353629    0.288563    0.267037    0.898454    0.931719
  792.8000      24.721    0.428848    0.283215    0.264647    0.974609    0.909801
  793.4000      24.506    0.198545    0.323342    0.262266    0.949666    0.907066
  794.0000      24.506    0.176749    0.486470    0.259896    0.778656    0.898604
  794.6000      24.284    0.204812    0.463161    0.257538    0.970268    0.927240
  795.2000      23.913    0.316359    0.416766    0.255193    0.966904    0.928718
  795.8000      23.355    0.463366    0.245272    0.252862    0.858962    0.847950
  796.4000      23.781    0.416340    0.345595    0.250547    0.876019    0.949905
  797.0000      23.686    0.463965    0.282665    0.248248    0.919891    0.895636
  797.6000      23.369    0.317806    0.232252    0.245967    0.930960    0.818765
  798.2000      22.957    0.230858    0.239448    0.243705    0.994591    0.892507
  798.8000      22.862    0.429569    0.178107    0.241464    0.995532    0.932815
  799.4000      23.383    0.393236    0.230700    0.239244    0.952788    0.925160
  800.0000      19.153    0.378219    0.104181    0.237046    0.935371    0.892227
  800.6000      18.579    0.450496    0.036603    0.234873    0.996214    0.864598
  801.2000      18.595    0.423193    0.203816    0.232725    0.975834    0.861616
  801.8000      18.704    0.114678    0.135238    0.230603    0.931101    0.871094
  802.4000      18.609    0.071641    0.207663    0.228508    0.993338    0.886932
  803.0000      18.546    0.192290    0.254142    0.226442    0.983272    0.889134
  803.6000      18.113    0.338413    0.259434    0.224406    0.919560    0.883891
  804.2000      18.195    0.439725    0.264109    0.222401    0.928554    0.915199
  804.8000      17.847    0.582517    0.231365    0.220428    0.978132    0.922099
  805.4000      18.031    0.329436    0.150177    0.218487    0.994591    0.878941
  806.0000      17.857    0.169429    0.141547    0.216581    0.994591    0.896901
  806.6000      16.400    0.340330    0.285234    0.214709    0.991394    0.886252
  807.2000      17.273    0.227892    0.192812    0.212872    0.796947    0.881050
  807.8000      17.209    0.139147    0.197312    0.211072    0.960719    0.916172
  808.4000      16.917    0.229289    0.203347    0.209309    0.951646    0.896286
  809.0000      16.714    0.331981    0.248088    0.207583    0.862593    0.894430
  809.6000      16.540    0.402089    0.350896    0.205895    0.789816    0.900587
  810.2000      16.540    0.288130    0.234197    0.204246    0.842615    0.921596
  810.8000      16.239    0.068710    0.303061    0.202637    0.864882    0.910910
  811.4000      16.375    0.146247    0.222549    0.201066    0.994591    0.895648
  812.0000      16.202    0.014243    0.247465    0.199535    0.897658    0.915678
  812.6000      16.184    0.088514    0.115519    0.198044    0.994591    0.905236
  813.2000      15.979    0.311808    0.051475    0.196593    0.993270    0.915337
  813.8000      16.090    0.312381    0.057587    0.195181    0.842604    0.851772
  814.4000      15.887    0.143376    0.214544    0.193809    0.850932    0.900900
  815.0000      15.713    0.118817    0.085920    0.192477    0.991284    0.917101
  815.6000      15.311    0.357289    0.167378    0.191183    0.993270    0.895463
  816.2000      15.550    0.326077    0.175805    0.189929    0.881232    0.913543
  816.8000      14.963    0.400957    0.013994    0.188713    0.994636    0.886679
  817.4000      14.438    0.562830    0.116083    0.187535    0.993338    0.900613
  818.0000      14.859    0.441157    0.040527    0.186393    0.956886    0.899622
  818.6000      14.386    0.180303    0.066150    0.185288    0.886881    0.874690
  819.2000      14.081    0.041367    0.048099    0.184219    0.907238    0.886618
  819.8000      14.265    0.422037    0.133815    0.183184    0.858175    0.895550
  820.4000      14.265    0.150369    0.036441    0.182183    0.846447    0.882330
  821.0000      14.274    0.153921    0.071916    0.181214    0.953114    0.889685
  821.6000      14.100    0.423164    0.116574    0.180277    0.991394    0.905812
  822.2000      13.596    0.230224    0.138177    0.179370    0.991394    0.891857
  822.8000      13.809    0.074946   -0.111496    0.178492    0.948318    0.912657
  823.4000      13.303    0.218751   -0.042231    0.177641    0.820756    0.884965
  824.0000      13.247    0.281021    0.026130    0.176817    0.957817    0.900014
  824.6000      13.529    0.190607    0.002040    0.176018    0.948027    0.904605
  825.2000      13.091    0.217110    0.294305    0.175242    0.993338    0.899641
  825.8000      13.091    0.236718    0.248748    0.174488    0.901648    0.900569
  826.4000      12.744    0.126080    0.129420    0.173754    0.889894    0.924146
  827.0000      12.860   -0.008322    0.143705    0.173039    0.702945    0.880198
  827.6000      12.853   -0.141731    0.104001    0.172341    0.818534    0.844438
  828.2000      13.025    0.261629    0.188002    0.171659    0.942161    0.889042
  828.8000      12.560    0.259497    0.189049    0.170991    0.856724    0.921925
  829.4000      12.551    0.118962    0.132575    0.170335    0.903335    0.906851
  830.0000      12.679    0.232059    0.138397    0.169690    0.991394    0.925783
  830.6000      12.788    0.153876    0.188550    0.169055    0.991394    0.916506
  831.2000      12.614   -0.028608    0.159209    0.168427    0.849842    0.869637
  831.8000      12.839    0.078106    0.213241    0.167805    0.800948    0.876946
  832.4000      12.317    0.380937    0.251908    0.167189    0.671649    0.892489
  833.0000      12.839    0.424222    0.241840    0.166576    0.954085    0.915936
  833.6000      12.351    0.183687    0.240993    0.165964    0.914540    0.914985
  834.2000      12.351    0.165679    0.213897    0.165354    0.991394    0.895984
  834.8000      12.590    0.149187    0.182548    0.164743    0.903706    0.931046
  835.4000      12.590   -0.151678    0.251619    0.164130    0.991394    0.873041
  836.0000      13.178    0.143701    0.277246    0.163514    0.993338    0.906733
  836.6000      12.351    0.211829    0.266702    0.162894    0.993338    0.923136
  837.2000      12.351    0.275631    0.231007    0.162270    0.991394    0.902816
  837.8000      12.177    0.345602    0.179484    0.161639    0.991394    0.904365
  838.4000      12.351    0.240877    0.246964    0.161002    0.930850    0.914606
  839.0000      11.657    0.202818    0.318643    0.160358    0.991394    0.921921
  839.6000      11.831    0.247463    0.383269    0.159706    0.940697    0.912414
  840.2000      11.657    0.297927    0.373187    0.159045    0.924747    0.927579
  840.8000      11.831    0.411221    0.270119    0.158375    0.991394    0.923274
  841.4000      12.004    0.369155    0.267097    0.157697    0.896807    0.883669
  842.0000      11.308    0.414785    0.217559    0.157008    0.991394    0.909631
  842.6000      11.484    0.267617    0.178144    0.156310    0.981729    0.885459
  843.2000      11.483   -0.147778    0.198783    0.155603    0.965860    0.922125
  843.8000      11.356   -0.004237    0.165789    0.154886    0.843616    0.896822
  844.4000      11.356    0.228939    0.167143    0.154159    0.840328    0.905663
  845.0000      11.357    0.058097    0.123998    0.153423    0.981729    0.901772
  845.6000      11.356    0.360005    0.194970    0.152678    0.593086    0.890744
  846.2000      11.356    0.420394    0.286278    0.151925    0.988162    0.929052
  846.8000      11.366    0.040197    0.270028    0.151164    0.893638    0.909198
  847.4000      11.530   -0.158426    0.085492    0.150395    0.991394    0.926263
  848.0000      10.945   -0.128691    0.055806    0.149619    0.939655    0.894215
  848.6000      11.119    0.384708    0.063627    0.148837    0.838087    0.896888
  849.2000      11.292    0.495420    0.115493    0.148050    0.794509    0.904129
  849.8000      11.465    0.251035    0.146173    0.147259    0.991394    0.926855
  850.4000      11.465    0.319148    0.161768    0.146463    0.988162    0.918863
  851.0000      11.227    0.099421    0.167428    0.145665    0.991394    0.925099
  851.6000      11.273   -0.170686    0.112275    0.144866    0.991394    0.912275
  852.2000      11.273   -0.030742    0.151567    0.144065    0.991394    0.908707
  852.8000      11.273    0.297887    0.164954    0.143265    0.809996    0.906769
  853.4000      11.100    0.387333    0.194444    0.142467    0.981729    0.923925
  854.0000      11.100    0.419641    0.086732    0.141671    0.988162    0.916126
  854.6000      11.100    0.378311    0.167652    0.140878    0.988162    0.936454
  855.2000      11.100   -0.158573    0.081320    0.140091    0.993338    0.899083
  855.8000      11.100   -0.079439    0.016029    0.139309    0.904746    0.924029
  856.4000      10.936    0.300659    0.044883    0.138535    0.988162    0.928867
  857.0000      10.762    0.317129    0.012113    0.137768    0.860371    0.893568
  857.6000      10.753    0.248854   -0.061719    0.137011   -1.000000    0.915077
  858.2000      11.100    0.239073   -0.015523    0.136265    0.706076    0.892379
  858.8000      10.752    0.136075    0.181686    0.135529    0.981729    0.920562
  859.4000      10.108   -0.356881    0.227733    0.134806    0.988162    0.922452
  860.0000      10.801   -0.070513    0.181980    0.134097    0.988162    0.909867
  860.6000      10.627    0.268454    0.133180    0.133401    0.902492    0.919037
  861.2000      10.627    0.356526    0.102757    0.132721    0.988162    0.909352
  861.8000      10.627    0.404896   -0.015853    0.132057    0.827089    0.880310
  862.4000      10.627    0.412514    0.074798    0.131410    0.962679    0.912942
  863.0000      10.627    0.032151    0.236974    0.130781    0.964330    0.913475
  863.6000      10.627   -0.186599    0.066922    0.130170    0.981729    0.883417
  864.2000      10.281    0.128726    0.204560    0.129577    0.985952    0.924426
  864.8000      10.280    0.246560    0.106127    0.129005    0.988162    0.912981
  865.4000      10.454    0.217908    0.145312    0.128452    0.969414    0.857026
  866.0000       9.933    0.179740    0.118420    0.127919    0.991394    0.920458
  866.6000      10.280    0.176335    0.159108    0.127408    0.863441    0.913669
  867.2000      10.107   -0.224840    0.132090    0.126917    0.921413    0.930444
  867.8000      10.280    0.017078   -0.046170    0.126447    0.670081    0.897436
  868.4000      10.933    0.062056    0.034800    0.125999    0.981729    0.872327
  869.0000       9.412    0.242039    0.202911    0.125572    0.981729    0.928144
  869.6000       9.760    0.164833    0.119714    0.125167    0.935152    0.909131
  870.2000       9.586   -0.106822    0.244933    0.124783    0.755174    0.886220
  870.8000       9.066   -0.194969    0.176110    0.124421    0.962679    0.915860
  871.4000       8.197   -0.186767    0.012814    0.124079    0.408891    0.887363
  872.0000       8.372   -0.199627    0.073695    0.123758    0.962679    0.907899
  872.6000       8.545    0.038439   -0.114284    0.123458    0.962679    0.916344
  873.2000       7.851    0.018703   -0.094478    0.123177    0.981729    0.925822
  873.8000       7.205    0.353513    0.127093    0.122917    0.981729    0.915845
  874.4000       7.204    0.326120    0.178210    0.122675    0.962679    0.865067
  875.0000       7.204   -0.188248    0.030790    0.122453    0.962679    0.895078
  875.6000       6.509   -0.223396    0.065144    0.122248   -1.000000    0.927789
  876.2000       7.557   -0.159898    0.016809    0.122060   -1.000000    0.910653
  876.8000       7.054   -0.417026    0.019721    0.121890   -1.000000    0.909840
  877.4000       6.661   -0.487407   -0.006530    0.121735   -1.000000    0.883282
  878.0000       6.240   -0.899585    0.063151    0.121595   -1.000000    0.877952
  878.6000       6.296   -1.012904   -0.087265    0.121470   -1.000000    0.914259
  879.2000       5.602    0.293583   -0.013842    0.121359   -1.000000    0.909896
  879.8000       4.742    0.150574    0.181245    0.121260   -1.000000    0.917655
  880.4000       4.215   -0.404578    0.309332    0.121174   -1.000000    0.912823
  881.0000       7.734    0.423216    0.189784    0.121098   -1.000000    0.902168
  881.6000       7.087    0.591229   -0.030030    0.121033   -1.000000    0.908626
  882.2000       7.387    0.180679    0.044216    0.120976   -1.000000    0.897322
  882.8000       7.387    0.130091    0.271163    0.120929   -1.000000    0.919494
  883.4000       7.058    1.200828    0.334317    0.120888   -1.000000    0.916829
  884.0000       6.885    1.631167    0.584422    0.120854   -1.000000    0.915505
  884.6000       7.058    0.274211    0.442928    0.120826   -1.000000    0.914281
  885.2000       7.058   -0.125679    0.044204    0.120802   -1.000000    0.914791
  885.8000       6.306    0.059357    0.062372    0.120782   -1.000000    0.903639
  886.4000       6.893   -0.141154    0.458673    0.120765   -1.000000    0.909135
  887.0000       6.720   -0.164121    0.334654    0.120749   -1.000000    0.866672
  887.6000       6.719    0.339181    0.056276    0.120735   -1.000000    0.891682
  888.2000       6.893   -0.611090    0.171741    0.120721   -1.000000    0.889842
  888.8000       6.720   -0.468473   -0.033911    0.120707   -1.000000    0.862500
  889.4000       6.893    0.123495   -0.261252    0.120690   -1.000000    0.881997
  890.0000       6.719   -0.176106   -0.098897    0.120672   -1.000000    0.912339
  890.6000       6.893   -0.116872    0.123853    0.120651   -1.000000    0.873777
  891.2000       6.893    0.155507    0.173106    0.120626   -1.000000    0.911670
  891.8000       6.253   -0.278599    0.608217    0.120596   -1.000000    0.911691
  892.4000       6.766   -0.505368    0.183724    0.120561   -1.000000    0.908286
  893.0000       6.536   -0.711529    0.085617    0.120520   -1.000000    0.908383
  893.6000       6.701   -0.584196    0.121905    0.120473   -1.000000    0.871115
  894.2000       6.701   -0.334651   -0.151380    0.120419   -1.000000    0.913011
  894.8000       6.701    0.130421    0.178424    0.120357   -1.000000    0.896086
  895.4000       6.527   -0.000000    0.044010    0.120286   -1.000000    0.900012
  896.0000       6.354    0.000000    0.113077    0.120207   -1.000000    0.906587
  896.6000       6.527   -0.338185    0.061212    0.120119   -1.000000    0.905514
  897.2000       6.701   -0.250113    0.128543    0.120021   -1.000000    0.911091
  897.8000       6.527    0.175979    0.075611    0.119913   -1.000000    0.915813
  898.4000       6.527    0.338845   -0.032096    0.119795   -1.000000    0.900278
  899.0000       6.701    0.677671   -0.042747    0.119665   -1.000000    0.909402
  899.6000       6.701    0.300015    0.441203    0.119525   -1.000000    0.913496
  900.2000       6.701   -0.072294    0.084029    0.119373   -1.000000    0.913130
  900.8000       6.362    0.000000    0.108525    0.119210   -1.000000    0.891978
  901.4000       5.676    0.568102    0.310151    0.119035   -1.000000    0.908169
  902.0000       6.371    0.931206   -0.044328    0.118848   -1.000000    0.904707
  902.6000       6.033    0.825340    0.064734    0.118649   -1.000000    0.896011
  903.2000       6.206    0.361366   -0.064736    0.118437   -1.000000    0.878893
  903.8000       6.041    0.849426    0.255368    0.118213   -1.000000    0.906109
  904.4000       6.041    0.441774    0.192277    0.117977   -1.000000    0.913083
  905.0000       5.868   -0.299857    0.222631    0.117729   -1.000000    0.904186
  905.6000       5.694    0.008921    0.095858    0.117468   -1.000000    0.897186
  906.2000       6.041    0.418251   -0.053778    0.117196   -1.000000    0.903093
  906.8000       6.041    0.343658    0.012936    0.116911   -1.000000    0.904649
  907.4000       5.868   -0.134670    0.101644    0.116613   -1.000000    0.904880
  908.0000       6.041    0.118329    0.437092    0.116304   -1.000000    0.904517
  908.6000       6.041   -0.546207    0.136936    0.115984   -1.000000    0.909780
  909.2000       5.867   -0.769346    0.332844    0.115652   -1.000000    0.851610
  909.8000       5.695   -0.208432    0.074695    0.115308   -1.000000    0.901634
  910.4000       5.868    0.143227   -0.179505    0.114954   -1.000000    0.892007
  911.0000       5.867    0.102318    0.284637    0.114589   -1.000000    0.878213
  911.6000       5.694    0.507770    0.214170    0.114213   -1.000000    0.910276
  912.2000       6.041    0.235525    0.160833    0.113827   -1.000000    0.890966
  912.8000       6.041   -1.206034    0.183815    0.113432   -1.000000    0.904706
  913.4000       5.868    0.420521   -0.040758    0.113027   -1.000000    0.899263
  914.0000       5.712    1.278649   -0.110695    0.112613   -1.000000    0.899027
  914.6000       5.548    0.431312    0.115405    0.112190   -1.000000    0.897925
  915.2000       5.384    0.552381    0.132675    0.111759   -1.000000    0.906657
  915.8000       5.384    0.300504    0.090355    0.111321   -1.000000    0.902625
  916.4000       5.384   -0.097364    0.151897    0.110875   -1.000000    0.899318
  917.0000       5.384   -0.622715    0.115149    0.110423   -1.000000    0.901299
  917.6000       5.384    0.085496    0.172399    0.109964   -1.000000    0.892589
  918.2000       5.211   -0.654484    0.087625    0.109499   -1.000000    0.907194
  918.8000       5.384   -0.345168    0.193248    0.109029   -1.000000    0.901649
  919.4000       5.384   -0.410546    0.323314    0.108554   -1.000000    0.892767
  920.0000       5.037    0.543413    0.258216    0.108075   -1.000000    0.896379
  920.6000       5.210    0.297594    0.237078    0.107592   -1.000000    0.901728
  921.2000       5.210   -0.137248    0.188570    0.107105   -1.000000    0.888990
  921.8000       5.384    0.555730    0.110489    0.106616   -1.000000    0.889400
  922.4000       5.384    0.846230    0.225019    0.106125   -1.000000    0.901385
  923.0000       5.384    0.220302    0.159699    0.105631   -1.000000    0.901411
  923.6000       5.210    0.508065    0.251535    0.105137   -1.000000    0.901429
  924.2000       5.210   -0.393495    0.221902    0.104642   -1.000000    0.901455
  924.8000       5.037   -0.613127   -0.064831    0.104146   -1.000000    0.895266
  925.4000       5.210   -0.453761   -0.014186    0.103651   -1.000000    0.889517
  926.0000       5.210    0.336892    0.068446    0.103157   -1.000000    0.856565
  926.6000       5.210    0.380165    0.123201    0.102664   -1.000000    0.895755
  927.2000       5.210    0.000000    0.106630    0.102173   -1.000000    0.895783
  927.8000       5.384    0.534460    0.154672    0.101684   -1.000000    0.895802
  928.4000       5.210   -0.062136    0.036753    0.101197   -1.000000    0.895416
  929.0000       4.862   -0.231020   -0.130231    0.100714   -1.000000    0.875828
  929.6000       5.210    0.792044   -0.011383    0.100234   -1.000000    0.895463
  930.2000       4.688    0.244801   -0.015181    0.099759   -1.000000    0.895905
  930.8000       4.342    0.816778    0.131473    0.099287   -1.000000    0.895510
  931.4000       4.516    0.365574   -0.021315    0.098820   -1.000000    0.886960
  932.0000       4.689   -0.762366    0.039328    0.098359   -1.000000    0.894342
  932.6000       4.168    0.000000    0.127055    0.097903   -1.000000    0.895999
  933.2000       4.168    0.000000   -0.124458    0.097452   -1.000000    0.892355
  933.8000       3.995    0.000000   -0.024595    0.097008   -1.000000    0.894407
  934.4000       4.168    0.000000    0.028554    0.096571   -1.000000    0.894436
  935.0000       4.168    0.000000   -0.035408    0.096139   -1.000000    0.894454
  935.6000       4.168    0.000000    0.009090    0.095715   -1.000000    0.894482
  936.2000       4.168    0.000000    0.132584    0.095299   -1.000000    0.880676
  936.8000       3.994    0.000000    0.075569    0.094889   -1.000000    0.895754
  937.4000       3.994    0.000000    0.043017    0.094487   -1.000000    0.880961
  938.0000       4.168    0.000000    0.118580    0.094094   -1.000000    0.895801
  938.6000       3.995    0.000000    0.165334    0.093708   -1.000000    0.895829
  939.2000       4.168    0.000000    0.139076    0.093330   -1.000000    0.895848
  939.8000       4.168    0.000000    0.132789    0.092961   -1.000000    0.895876
  940.4000       4.168    0.000000    0.194531    0.092600   -1.000000    0.894670
  941.0000       4.168    0.000000    0.011530    0.092247   -1.000000    0.834912
  941.6000       4.168    0.000000   -0.070157    0.091904   -1.000000    0.894717
  942.2000       4.168    0.000000    0.176445    0.091569   -1.000000    0.894745
  942.8000       4.168    0.000000    0.116158    0.091243   -1.000000    0.894764
  943.4000       3.822    0.000000    0.103818    0.090926   -1.000000    0.883374
  944.0000       3.995    0.000000    0.169382    0.090617   -1.000000    0.896035
  944.6000       3.822    0.000000    0.301969    0.090318   -1.000000    0.894829
  945.2000       3.994    0.000000    0.093063    0.090027   -1.000000    0.896082
  945.8000       3.995    0.000000   -0.009875    0.089745   -1.000000    0.894876
  946.4000       4.168    0.000000    0.031752    0.089472   -1.000000    0.896129
  947.0000       4.168    0.000000   -0.000802    0.089208   -1.000000    0.896148
  947.6000       4.168    0.000000   -0.027082    0.088953   -1.000000    0.894942
  948.2000       3.995    0.000000    0.137635    0.088706   -1.000000    0.891704
  948.8000       4.168    0.000000    0.250145    0.088468   -1.000000    0.896213
  949.4000       3.995    0.000000    0.078879    0.088239   -1.000000    0.895017
  950.0000       3.995    0.000000    0.004908    0.088018   -1.000000    0.880816
